File: Data/Br/Br-K-KBr.xdi
# XDI/1.0 BlueSky/1.13.0a3 BMM/2024-2.0-py310-tiled
# Beamline.name: BMM (06BM) -- Beamline for Materials Measurement (NIST)
# Beamline.collimation: paraboloid mirror, 5 nm Rh on 30 nm Pt
# Beamline.xray_source: NSLS-II three-pole wiggler
# Beamline.focusing: not in use
# Beamline.harmonic_rejection: flat mirror, Pt stripe, pitch = 7.0 mrad relative to beam
# Beamline.software: Bluesky 1.13.0a4, Ophyd 1.9.0, DataBroker 2.0.0b45, Python 3.11.6, 2024-2.3-py311-tiled
# Detector.I0: 25 cm N2, NSLS2 IC
# Detector.It: 25 cm N2, NSLS2 IC
# Detector.Ir: 25 cm N2, NSLS2 IC
# Element.edge: K
# Element.symbol: Br
# Element.reference: Br
# Element.reference_material: bromophenol blue
# Facility.name: NSLS-II
# Facility.energy: 3.0
# Facility.GUP: 318519
# Facility.SAF: 316542
# Facility.cycle: 2025-2
# Facility.current: 400.5
# Facility.mode: top-off
# Mono.name: Si(111)
# Mono.d_spacing: 3.13553
# Mono.encoder_resolution: 5e-06
# Mono.angle_offset: 16.0812
# Mono.direction: forward
# Mono.scan_type: step
# Mono.scan_mode: pseudo channel cut
# Sample.name: ...
# Sample.prep: 2 abs. lengths in PEG pellet. Double kapton containment.
# Sample.SDD_position: 205.0
# Sample.x: 66.174
# Sample.y: 176.101
# Sample.wheel_slot: 20
# Sample.wheel_ring: outer
# Scan.edge_energy: 13473.7
# Scan.experimenters: Malin Dixon Wilkins, John Bussey, John Mccloy, Gavin Mccloy, Seonjin Kim, Maxwell Mccloy, John McCloy
# Scan.start_time: 2025-07-09T22:01:00
# Scan.end_time: 2025-07-09T22:08:46
# Scan.uid: 29d5cdc5-f55e-423d-bff1-1223d2e4601d
# Scan.transient_id: 32786
# Scan.plot_hint: ln(I0/It)  --  ln($5/$6)
# Column.1: energy eV
# Column.2: requested_energy eV
# Column.3: measurement_time seconds
# Column.4: xmu
# Column.5: I0 nA
# Column.6: Itrans nA
# Column.7: Irefer nA
# //////////////////////////////////////////////////////////
# ...
# ----------------------------------------------------------
# energy requested_energy measurement_time xmu I0 It Ir
13273.7 13273.7 0.500000 -0.702461 61.0754 30.2546 24.3181
13293.8 13293.7 0.500000 -0.699248 60.6989 30.1648 24.3004
13313.8 13313.7 0.500000 -0.695375 60.4291 30.1473 24.3442
13333.8 13333.7 0.500000 -0.691949 60.1047 30.0884 24.3518
13353.8 13353.7 0.500000 -0.688716 59.9151 30.0906 24.3993
13373.7 13373.7 0.500000 -0.685300 59.5834 30.0264 24.4
13393.6 13393.7 0.500000 -0.682788 59.3176 29.9676 24.395
13413.7 13413.7 0.500000 -0.681321 59.0758 29.8893 24.3688
13433.7 13433.7 0.500000 -0.681936 58.7605 29.7115 24.2294
13445.7 13445.7 0.500000 -0.686014 58.5794 29.4994 24.023
13449.7 13449.7 0.500000 -0.689135 58.5139 29.3746 23.894
13453.7 13453.7 0.500000 -0.693257 58.4616 29.2276 23.7362
13457.7 13457.7 0.500000 -0.699378 58.403 29.0201 23.4993
13461.7 13461.7 0.500000 -0.710175 58.3364 28.6757 23.1028
13464.1 13464.2 0.500000 -0.720401 58.2927 28.3627 22.7315
13465.1 13465.2 0.500000 -0.726001 58.2753 28.1959 22.5267
13466.1 13466.2 0.500000 -0.733129 58.2654 27.9909 22.2758
13467.2 13467.2 0.500000 -0.741913 58.2468 27.7373 21.9612
13468.1 13468.2 0.500000 -0.752340 58.2245 27.439 21.5844
13469.2 13469.2 0.500000 -0.765361 58.1587 27.0535 21.0913
13470.2 13470.2 0.500000 -0.782201 58.1345 26.5906 20.4779
13471.2 13471.2 0.500000 -0.805607 58.1619 25.9877 19.6445
13472.2 13472.2 0.500000 -0.838926 58.1646 25.1372 18.4017
13473.2 13473.2 0.500000 -0.889687 58.1528 23.8883 16.4794
13474.2 13474.2 0.500000 -0.973720 58.1374 21.9571 13.4918
13475.2 13475.2 0.500000 -1.120557 58.1177 18.9521 9.538406
13476.2 13476.2 0.500000 -1.381191 58.0714 14.5921 5.856985
13477.2 13477.2 0.500000 -1.811385 57.9913 9.477374 3.436992
13478.2 13478.2 0.500000 -2.351312 57.8587 5.510702 2.190332
13479.2 13479.2 0.500000 -2.700644 57.5868 3.867656 1.709896
13480.2 13480.2 0.500000 -2.699896 57.672 3.876280 1.681148
13481.2 13481.2 0.500000 -2.617679 57.9429 4.228211 1.693896
13482.2 13482.2 0.500000 -2.597643 58.0403 4.321032 1.604185
13483.2 13483.2 0.500000 -2.571229 57.9891 4.432781 1.585291
13484.2 13484.2 0.500000 -2.440468 57.957 5.049220 1.808507
13485.2 13485.2 0.500000 -2.204601 57.9806 6.394943 2.332699
13486.2 13486.2 0.500000 -2.021328 57.9813 7.681321 2.871420
13487.2 13487.2 0.500000 -1.995162 57.9657 7.882845 3.030341
13488.2 13488.2 0.500000 -2.089165 57.954 7.174148 2.829249
13489.2 13489.2 0.500000 -2.196254 57.929 6.442813 2.591379
13490.2 13490.2 0.500000 -2.270879 57.9123 5.977789 2.435438
13491.2 13491.2 0.500000 -2.316933 57.8547 5.703054 2.340231
13492.2 13492.2 0.500000 -2.331870 57.8191 5.615042 2.306083
13493.2 13493.2 0.500000 -2.328377 57.8411 5.636836 2.302664
13494.2 13494.2 0.500000 -2.331978 57.8508 5.617517 2.278382
13495.2 13495.2 0.500000 -2.353458 57.8333 5.496475 2.213618
13496.2 13496.2 0.500000 -2.379046 57.8236 5.356718 2.147389
13497.2 13497.2 0.500000 -2.377289 57.8045 5.364364 2.146349
13498.2 13498.2 0.500000 -2.336929 57.7737 5.582322 2.234272
13499.7 13499.7 1.000000 -2.253344 115.443 12.127 4.886063
13501.8 13501.7 1.000000 -2.210174 115.439 12.6615 5.186343
13503.8 13503.8 1.000000 -2.233725 115.375 12.3599 5.141483
13506 13506 1.000000 -2.258603 115.297 12.0481 5.058376
13508.3 13508.3 1.000000 -2.275145 115.224 11.843 4.991037
13510.6 13510.6 1.000000 -2.277066 115.487 11.8472 4.981341
13513 13513 1.000000 -2.273421 115.396 11.8811 4.944008
13515.5 13515.5 1.000000 -2.275219 115.309 11.8508 4.855974
13518 13518 1.000000 -2.285608 115.216 11.7189 4.741239
13520.7 13520.7 1.000000 -2.279107 115.124 11.7858 4.743271
13523.4 13523.4 1.000000 -2.258045 115.029 12.0268 4.851734
13526.2 13526.2 1.000000 -2.247981 114.887 12.1335 4.922791
13529.1 13529 1.000000 -2.231303 114.803 12.3285 5.034913
13532 13532 1.000000 -2.195914 114.667 12.7575 5.238348
13535 13535 1.000000 -2.176713 114.337 12.9673 5.344611
13538.1 13538.1 1.000000 -2.180616 113.289 12.7985 5.292543
13541.3 13541.3 1.000000 -2.191708 113.991 12.7357 5.276852
13544.6 13544.5 1.000000 -2.212618 114.463 12.5238 5.194515
13547.9 13547.9 1.000000 -2.229275 114.344 12.3042 5.107971
13551.3 13551.2 1.000000 -2.235515 114.214 12.2137 5.079716
13554.7 13554.7 1.000000 -2.222422 113.958 12.3469 5.146905
13558.3 13558.3 1.000000 -2.208455 112.88 12.4021 5.188388
13561.9 13561.9 1.000000 -2.196287 113.893 12.6667 5.319818
13565.6 13565.6 1.000000 -2.187459 113.177 12.6986 5.354502
13569.4 13569.4 1.000000 -2.179055 113.643 12.8586 5.437319
13573.3 13573.2 1.000000 -2.171491 112.389 12.8132 5.424583
13577.2 13577.2 1.000000 -2.167127 113.424 12.9877 5.501679
13581.2 13581.2 1.000000 -2.170490 113.313 12.9315 5.476248
13585.3 13585.3 1.000000 -2.182035 113.164 12.7662 5.406284
13589.4 13589.4 1.000000 -2.188997 112.802 12.6371 5.354277
13593.7 13593.7 1.000000 -2.189700 112.227 12.5639 5.327565
13598 13598 1.000000 -2.192636 112.854 12.597 5.352229
13602.4 13602.4 1.000000 -2.191247 112.694 12.5966 5.360963
13606.8 13606.9 1.000000 -2.183293 112.577 12.684 5.401000
13611.4 13611.4 1.000000 -2.174025 112.414 12.7836 5.439696
13616 13616 1.000000 -2.166486 112.3 12.8673 5.465287
13620.7 13620.7 1.000000 -2.160911 112.092 12.9153 5.478611
13625.5 13625.5 1.000000 -2.159356 112.019 12.9269 5.483741
13630.4 13630.3 1.000000 -2.158730 111.792 12.9088 5.481274
13635.3 13635.2 1.000000 -2.158675 111.714 12.9005 5.494654
13640.3 13640.2 1.000000 -2.158589 111.563 12.8842 5.505174
13645.4 13645.3 1.000000 -2.158438 111.399 12.8672 5.513108
13650.5 13650.5 1.000000 -2.157214 111.188 12.8585 5.521881
13655.7 13655.7 1.000000 -2.154669 111.079 12.8787 5.542649
13661 13661 1.000000 -2.149572 110.999 12.9351 5.577948
13666.4 13666.4 1.000000 -2.145318 110.82 12.9694 5.606382
13671.9 13671.9 1.000000 -2.141039 110.64 13.0038 5.632628
13677.4 13677.4 1.000000 -2.136959 110.481 13.0382 5.657917
13683 13683 1.000000 -2.133098 110.297 13.0669 5.677959
13688.7 13688.7 1.000000 -2.130695 110.134 13.0789 5.689174
13694.5 13694.4 1.000000 -2.129558 110.319 13.1158 5.711901
13700.3 13700.3 1.000000 -2.128616 110.13 13.1057 5.713251
13706.2 13706.2 1.000000 -2.127519 109.978 13.102 5.713471
13712.2 13712.2 1.000000 -2.125830 109.803 13.1033 5.714036
13718.3 13718.2 1.000000 -2.123238 109.646 13.1184 5.728189
13724.4 13724.4 1.000000 -2.120058 109.471 13.1392 5.747203
13730.6 13730.6 1.000000 -2.116782 109.297 13.1614 5.770155
13736.9 13736.9 1.000000 -2.112934 109.119 13.1906 5.793231
13743.3 13743.3 1.000000 -2.109677 108.949 13.213 5.814653
13749.7 13749.7 1.000000 -2.106275 108.755 13.2345 5.830394
13756.3 13756.2 1.000000 -2.102978 108.559 13.2542 5.843527
13762.9 13762.9 1.000000 -2.100287 108.375 13.2675 5.856501
13769.6 13769.5 1.000000 -2.097786 108.189 13.2778 5.871373
13776.3 13776.3 1.000000 -2.094850 107.992 13.2926 5.891312
13783.1 13783.1 1.000000 -2.092187 107.787 13.3028 5.909004
13790 13790 1.000000 -2.088884 107.591 13.3224 5.927359
13797 13797 1.000000 -2.085837 107.374 13.3362 5.945698
13804.1 13804 1.000000 -2.082382 107.175 13.3575 5.967133
13811.2 13811.2 1.000000 -2.078825 106.98 13.3807 5.992267
13818.4 13818.4 1.000000 -2.075234 106.779 13.4036 6.015913
13825.7 13825.7 1.000000 -2.071475 106.537 13.4236 6.036894
13833.1 13833 1.000000 -2.067649 106.345 13.4509 6.058810
13840.5 13840.5 1.000000 -2.064100 106.139 13.4725 6.076608
13848 13848 1.000000 -2.060780 105.887 13.4852 6.092209
13855.6 13855.6 1.000000 -2.057495 105.549 13.4864 6.103580
13863.3 13863.2 1.000000 -2.053813 105.398 13.5168 6.128491
13871 13871 1.000000 -2.050035 105.085 13.5276 6.142804
13878.8 13878.8 1.000000 -2.046464 104.594 13.5126 6.146770
13886.8 13886.7 1.000000 -2.042673 104.096 13.4994 6.152640
13894.7 13894.7 1.000000 -2.038737 103.427 13.4655 6.150260
13902.8 13902.7 1.000000 -2.035014 103.304 13.4996 6.180682
13910.9 13910.9 1.000000 -2.031085 103.241 13.5445 6.216414
13919.1 13919 1.000000 -2.026995 102.908 13.5562 6.233972
13927.4 13927.3 1.000000 -2.023157 102.781 13.5914 6.264308
13935.7 13935.7 1.000000 -2.019022 102.639 13.629 6.294487
13944.2 13944.1 1.000000 -2.015053 102.379 13.6484 6.317981
13952.6 13952.6 1.000000 -2.011140 102.138 13.6697 6.341593
13961.2 13961.2 1.000000 -2.007578 101.743 13.6654 6.352319
13969.9 13969.9 1.000000 -2.000915 94.5081 12.7786 5.950048
13978.6 13978.6 1.000000 -1.999460 101.811 13.786 6.435925
13987.4 13987.4 1.000000 -1.995090 101.484 13.8019 6.454850
13996.3 13996.3 1.000000 -1.991225 101.207 13.8175 6.477618
14005.3 14005.2 1.000000 -1.986993 100.959 13.8422 6.504283
14014.3 14014.3 1.000000 -1.983123 100.718 13.8628 6.528608
14023.5 14023.4 1.000000 -1.978673 100.67 13.9179 6.566760
14032.6 14032.6 1.000000 -1.974838 100.431 13.9382 6.591349
14041.9 14041.9 1.000000 -1.970590 100.196 13.9648 6.616023
14051.3 14051.2 1.000000 -1.966276 99.9529 13.9911 6.643795
14060.8 14060.6 1.000000 -1.962094 99.6584 14.0084 6.667437
14070.1 14070.1 1.000000 -1.957902 99.2149 14.0046 6.680304
14079.7 14079.7 1.000000 -1.953988 99.1125 14.045 6.716026
14089.3 14089.3 1.000000 -1.949377 99.0018 14.0942 6.752796
14099.1 14099.1 1.000000 -1.945220 98.655 14.1033 6.773386
14108.9 14108.9 1.000000 -1.940934 98.0378 14.0753 6.776073
14118.8 14118.7 1.000000 -1.932072 92.809 13.4432 6.481494
14128.7 14128.7 1.000000 -1.932067 98.0283 14.1993 6.868029
14138.8 14138.7 1.000000 -1.928047 97.7522 14.2163 6.891396
14148.9 14148.8 1.000000 -1.923546 97.4719 14.2395 6.918584
14159 14159 1.000000 -1.919554 96.8625 14.207 6.918178
14169.3 14169.3 1.000000 -1.915023 96.8919 14.2759 6.967559
14179.6 14179.6 1.000000 -1.910595 96.67 14.3064 6.996992
14190 14190 1.000000 -1.906369 96.4092 14.3282 7.023502
14200.5 14200.5 1.000000 -1.901936 96.1386 14.3515 7.051596
14211.1 14211 1.000000 -1.897704 95.8633 14.3711 7.075860
14216.4 14216.4 1.000000 -1.895470 95.7247 14.3824 7.090866