File: Data/Br/Br-K-CaBr2.xdi
# XDI/1.0 BlueSky/1.13.0a3 BMM/2024-2.0-py310-tiled
# Beamline.name: BMM (06BM) -- Beamline for Materials Measurement (NIST)
# Beamline.collimation: paraboloid mirror, 5 nm Rh on 30 nm Pt
# Beamline.xray_source: NSLS-II three-pole wiggler
# Beamline.focusing: not in use
# Beamline.harmonic_rejection: flat mirror, Pt stripe, pitch = 7.0 mrad relative to beam
# Beamline.software: Bluesky 1.13.0a4, Ophyd 1.9.0, DataBroker 2.0.0b45, Python 3.11.6, 2024-2.3-py311-tiled
# Detector.I0: 25 cm N2, NSLS2 IC
# Detector.It: 25 cm N2, NSLS2 IC
# Detector.Ir: 25 cm N2, NSLS2 IC
# Element.edge: K
# Element.symbol: Br
# Element.reference: Br
# Element.reference_material: bromophenol blue
# Facility.name: NSLS-II
# Facility.energy: 3.0
# Facility.GUP: 318519
# Facility.SAF: 316542
# Facility.cycle: 2025-2
# Facility.current: 400.1
# Facility.mode: top-off
# Mono.name: Si(111)
# Mono.d_spacing: 3.13553
# Mono.encoder_resolution: 5e-06
# Mono.angle_offset: 16.0812
# Mono.direction: forward
# Mono.scan_type: step
# Mono.scan_mode: pseudo channel cut
# Sample.name: ...
# Sample.prep: 2 abs. lengths in PEG pellet. Double kapton containment.
# Sample.SDD_position: 205.0
# Sample.x: 66.174
# Sample.y: 176.101
# Sample.wheel_slot: 19
# Sample.wheel_ring: outer
# Scan.edge_energy: 13473.7
# Scan.experimenters: Malin Dixon Wilkins, John Bussey, John Mccloy, Gavin Mccloy, Seonjin Kim, Maxwell Mccloy, John McCloy
# Scan.start_time: 2025-07-09T21:52:45
# Scan.end_time: 2025-07-09T22:00:28
# Scan.uid: d91ab3cc-bfa5-4534-b5ea-ddf6ee773bf5
# Scan.transient_id: 32782
# Scan.plot_hint: ln(I0/It)  --  ln($5/$6)
# Column.1: energy eV
# Column.2: requested_energy eV
# Column.3: measurement_time seconds
# Column.4: xmu
# Column.5: I0 nA
# Column.6: Itrans nA
# Column.7: Irefer nA
# //////////////////////////////////////////////////////////
# ...
# ----------------------------------------------------------
# energy requested_energy measurement_time xmu I0 It Ir
13273.7 13273.7 0.500000 -0.524201 61.0828 36.1627 29.0862
13293.8 13293.7 0.500000 -0.521369 60.7024 36.0395 29.0531
13313.8 13313.7 0.500000 -0.518186 60.4343 35.9947 29.0846
13333.8 13333.7 0.500000 -0.515286 60.1043 35.9021 29.0722
13353.7 13353.7 0.500000 -0.512635 59.9069 35.8792 29.1193
13373.7 13373.7 0.500000 -0.509970 59.5713 35.7734 29.0916
13393.7 13393.7 0.500000 -0.507905 59.3063 35.6878 29.0753
13413.7 13413.7 0.500000 -0.506583 59.0588 35.5859 29.0336
13433.7 13433.7 0.500000 -0.507383 58.7522 35.3728 28.8725
13445.7 13445.7 0.500000 -0.510660 58.5697 35.1477 28.6475
13449.6 13449.7 0.500000 -0.512766 58.494 35.0284 28.5182
13453.7 13453.7 0.500000 -0.516151 58.4453 34.8809 28.3486
13457.7 13457.7 0.500000 -0.521760 58.3898 34.6529 28.0863
13461.6 13461.7 0.500000 -0.530544 58.3254 34.312 27.6715
13464.1 13464.2 0.500000 -0.539409 58.2797 33.9825 27.2587
13465.1 13465.2 0.500000 -0.544430 58.262 33.802 27.0328
13466.2 13466.2 0.500000 -0.550495 58.24 33.5849 26.7517
13467.1 13467.2 0.500000 -0.557912 58.2185 33.3245 26.4148
13468.1 13468.2 0.500000 -0.566967 58.1972 33.012 26.0007
13469.1 13469.2 0.500000 -0.578974 58.1429 32.5875 25.4439
13470.2 13470.2 0.500000 -0.594678 58.1142 32.0639 24.7229
13471.2 13471.2 0.500000 -0.616551 58.1332 31.3804 23.7467
13472.2 13472.2 0.500000 -0.649144 58.1483 30.382 22.2571
13473.2 13473.2 0.500000 -0.699610 58.1313 28.8784 19.9496
13474.1 13474.2 0.500000 -0.787107 58.1175 26.4527 16.3113
13475.2 13475.2 0.500000 -0.953771 58.0896 22.3811 11.3037
13476.2 13476.2 0.500000 -1.262541 58.0427 16.4223 6.591785
13477.2 13477.2 0.500000 -1.701636 57.9665 10.5722 3.876076
13478.2 13478.2 0.500000 -2.142235 57.838 6.789737 2.779706
13479.2 13479.2 0.500000 -2.361540 57.5757 5.427943 2.444165
13480.2 13480.2 0.500000 -2.384673 57.6527 5.310910 2.318408
13481.2 13481.2 0.500000 -2.331120 57.919 5.628967 2.249192
13482.2 13482.2 0.500000 -2.228161 58.1494 6.264230 2.327976
13483.2 13483.2 0.500000 -2.082494 58.1069 7.241221 2.599667
13484.2 13484.2 0.500000 -1.938445 58.0748 8.358560 3.006364
13485.2 13485.2 0.500000 -1.819184 58.0935 9.420326 3.444603
13486.2 13486.2 0.500000 -1.735057 58.1017 10.2486 3.852024
13487.2 13487.2 0.500000 -1.689610 58.0811 10.7213 4.154235
13488.2 13488.2 0.500000 -1.681031 58.06 10.8097 4.300698
13489.2 13489.2 0.500000 -1.710132 58.0434 10.4967 4.253394
13490.2 13490.2 0.500000 -1.767683 58.0297 9.907298 4.067074
13491.2 13491.2 0.500000 -1.835005 57.9684 9.252504 3.822090
13492.2 13492.2 0.500000 -1.894307 57.9263 8.713427 3.598046
13493.2 13493.2 0.500000 -1.948027 57.9394 8.259555 3.394487
13494.2 13494.2 0.500000 -1.984838 57.9532 7.962931 3.249717
13495.2 13495.2 0.500000 -2.002524 57.9416 7.821777 3.170135
13496.2 13496.2 0.500000 -2.002851 57.9255 7.817040 3.153508
13497.2 13497.2 0.500000 -1.996019 57.9058 7.867962 3.166696
13498.2 13498.2 0.500000 -1.991321 57.885 7.902168 3.180992
13499.7 13499.7 1.000000 -1.996355 115.656 15.7094 6.368235
13501.7 13501.7 1.000000 -2.009147 115.656 15.5098 6.391764
13503.8 13503.8 1.000000 -2.005085 115.602 15.5657 6.515770
13506 13506 1.000000 -1.981134 115.519 15.9315 6.729656
13508.3 13508.3 1.000000 -1.946479 115.454 16.484 6.990466
13510.6 13510.6 1.000000 -1.911961 115.366 17.05 7.213877
13513 13513 1.000000 -1.887375 115.276 17.4607 7.307166
13515.5 13515.5 1.000000 -1.874665 115.194 17.6715 7.283409
13518.1 13518 1.000000 -1.869528 115.109 17.7495 7.224966
13520.7 13520.7 1.000000 -1.869851 115.011 17.7286 7.177714
13523.4 13523.4 1.000000 -1.874594 114.926 17.6316 7.156660
13526.2 13526.2 1.000000 -1.881627 114.798 17.4885 7.138742
13529.1 13529 1.000000 -1.890284 114.719 17.3259 7.117870
13532 13532 1.000000 -1.898265 114.599 17.1702 7.090864
13535 13535 1.000000 -1.901190 114.281 17.0725 7.078159
13538.2 13538.1 1.000000 -1.897969 113.227 16.9696 7.057771
13541.3 13541.3 1.000000 -1.887206 113.913 17.2572 7.190703
13544.6 13544.5 1.000000 -1.871701 114.412 17.6037 7.344456
13547.8 13547.9 1.000000 -1.856606 114.285 17.8516 7.454662
13551.3 13551.2 1.000000 -1.845744 114.149 18.0251 7.540346
13554.8 13554.7 1.000000 -1.839529 113.918 18.1006 7.589906
13558.3 13558.3 1.000000 -1.838094 112.792 17.9476 7.551542
13562 13561.9 1.000000 -1.839581 113.834 18.0865 7.640371
13565.6 13565.6 1.000000 -1.843168 113.122 17.9089 7.596117
13569.4 13569.4 1.000000 -1.847780 113.598 17.9015 7.611946
13573.3 13573.2 1.000000 -1.850756 112.361 17.6539 7.516683
13577.2 13577.2 1.000000 -1.850380 113.352 17.8164 7.589761
13581.2 13581.2 1.000000 -1.848314 113.27 17.8403 7.599489
13585.3 13585.3 1.000000 -1.844422 113.126 17.8871 7.617162
13589.4 13589.4 1.000000 -1.839890 112.775 17.9126 7.630962
13593.7 13593.7 1.000000 -1.835178 112.192 17.9042 7.637040
13598 13598 1.000000 -1.832860 112.821 18.0463 7.712833
13602.4 13602.4 1.000000 -1.831093 112.656 18.0519 7.726254
13606.9 13606.9 1.000000 -1.830258 112.546 18.0492 7.731208
13611.4 13611.4 1.000000 -1.829430 112.372 18.0363 7.716137
13616 13616 1.000000 -1.829080 112.577 18.0754 7.720672
13620.7 13620.7 1.000000 -1.828460 112.363 18.0524 7.700718
13625.5 13625.5 1.000000 -1.826802 112.301 18.0722 7.708111
13630.4 13630.3 1.000000 -1.823982 112.076 18.087 7.723770
13635.3 13635.2 1.000000 -1.820432 112.007 18.1402 7.770678
13640.3 13640.2 1.000000 -1.816427 111.858 18.1887 7.815700
13645.3 13645.3 1.000000 -1.812315 111.684 18.2354 7.858372
13650.5 13650.5 1.000000 -1.808955 111.471 18.2618 7.886652
13655.7 13655.7 1.000000 -1.806269 111.368 18.2939 7.915627
13661 13661 1.000000 -1.803923 111.264 18.3198 7.944784
13666.4 13666.4 1.000000 -1.801809 111.109 18.333 7.966653
13671.9 13671.9 1.000000 -1.799558 110.934 18.3454 7.989600
13677.4 13677.4 1.000000 -1.797491 110.766 18.3556 8.009854
13683 13683 1.000000 -1.794964 110.596 18.3737 8.029104
13688.7 13688.7 1.000000 -1.792820 110.419 18.3837 8.039299
13694.5 13694.4 1.000000 -1.790656 110.251 18.3955 8.054856
13700.3 13700.3 1.000000 -1.788207 110.079 18.4117 8.068379
13706.2 13706.2 1.000000 -1.785531 109.913 18.4333 8.083214
13712.2 13712.2 1.000000 -1.782945 109.745 18.4528 8.094686
13718.3 13718.2 1.000000 -1.780490 109.581 18.4705 8.110516
13724.4 13724.4 1.000000 -1.777804 109.41 18.4913 8.132177
13730.7 13730.6 1.000000 -1.775149 109.227 18.5094 8.158350
13736.9 13736.9 1.000000 -1.772739 109.056 18.5251 8.183428
13743.3 13743.3 1.000000 -1.770196 108.872 18.5409 8.205219
13749.8 13749.7 1.000000 -1.767580 108.686 18.5577 8.219404
13756.3 13756.2 1.000000 -1.764703 108.484 18.5766 8.233559
13762.9 13762.9 1.000000 -1.761621 108.297 18.6017 8.254587
13769.5 13769.5 1.000000 -1.758544 108.09 18.6234 8.279522
13776.3 13776.3 1.000000 -1.755511 107.899 18.6469 8.309884
13783.1 13783.1 1.000000 -1.752381 107.693 18.6698 8.336258
13790 13790 1.000000 -1.749499 107.498 18.6897 8.363903
13797 13797 1.000000 -1.746519 107.296 18.7102 8.389131
13804.1 13804 1.000000 -1.743299 107.092 18.735 8.415287
13811.2 13811.2 1.000000 -1.740099 106.892 18.7599 8.446170
13818.4 13818.4 1.000000 -1.736934 106.673 18.7807 8.475070
13825.7 13825.7 1.000000 -1.733777 106.425 18.7964 8.501151
13833.1 13833 1.000000 -1.730374 106.219 18.824 8.523996
13840.5 13840.5 1.000000 -1.727113 106.015 18.8492 8.549725
13848 13848 1.000000 -1.723655 105.75 18.8671 8.571476
13855.6 13855.6 1.000000 -1.720190 105.442 18.8775 8.590888
13863.3 13863.2 1.000000 -1.716650 105.268 18.9132 8.621282
13871 13871 1.000000 -1.713186 104.954 18.9221 8.640277
13878.8 13878.8 1.000000 -1.709632 104.471 18.9021 8.645659
13886.7 13886.7 1.000000 -1.706056 104.018 18.8876 8.654730
13894.7 13894.7 1.000000 -1.702602 103.599 18.8767 8.670234
13902.8 13902.7 1.000000 -1.699079 103.464 18.9185 8.711065
13910.9 13910.9 1.000000 -1.695642 103.388 18.9698 8.754517
13919.1 13919 1.000000 -1.691923 103.058 18.9796 8.777953
13927.4 13927.3 1.000000 -1.688144 102.925 19.027 8.818079
13935.7 13935.7 1.000000 -1.684432 102.778 19.0704 8.855998
13944.1 13944.1 1.000000 -1.680757 102.501 19.089 8.885957
13952.7 13952.6 1.000000 -1.677130 102.255 19.1125 8.916087
13961.2 13961.2 1.000000 -1.673173 101.85 19.1123 8.935551
13969.9 13969.9 1.000000 -1.668579 94.6584 17.8445 8.357171
13978.6 13978.6 1.000000 -1.665698 101.903 19.2657 9.041415
13987.4 13987.4 1.000000 -1.661916 101.587 19.2787 9.067610
13996.3 13996.3 1.000000 -1.658139 101.297 19.2965 9.097153
14005.3 14005.2 1.000000 -1.654204 101.048 19.3249 9.132634
14014.3 14014.3 1.000000 -1.650491 100.781 19.3455 9.162426
14023.4 14023.4 1.000000 -1.646512 100.515 19.3714 9.191604
14032.6 14032.6 1.000000 -1.642671 100.235 19.3918 9.220922
14041.9 14041.9 1.000000 -1.638887 99.9762 19.415 9.251219
14051.2 14051.2 1.000000 -1.634973 99.7416 19.4454 9.286744
14060.6 14060.6 1.000000 -1.631068 99.4441 19.4632 9.316227
14070.2 14070.1 1.000000 -1.627123 98.9648 19.446 9.327868
14079.8 14079.7 1.000000 -1.623050 98.8393 19.5006 9.374855
14089.9 14089.3 1.000000 -1.619074 98.6946 19.5496 9.419059
14099.1 14099.1 1.000000 -1.615254 98.3705 19.56 9.446385
14108.9 14108.9 1.000000 -1.611311 97.7331 19.51 9.443782
14118.8 14118.7 1.000000 -1.605115 92.6794 18.6162 9.029138
14128.8 14128.7 1.000000 -1.603283 97.7559 19.6719 9.566352
14138.8 14138.7 1.000000 -1.599330 97.4506 19.6881 9.596326
14148.9 14148.8 1.000000 -1.595315 97.1644 19.7093 9.630966
14159 14159 1.000000 -1.591388 96.5686 19.6655 9.631223
14169.3 14169.3 1.000000 -1.587279 96.5733 19.7474 9.690917
14179.6 14179.6 1.000000 -1.583265 96.3291 19.7767 9.730197
14190 14190 1.000000 -1.579340 96.097 19.8067 9.765479
14200.5 14200.5 1.000000 -1.575192 95.8077 19.8291 9.797359
14211.1 14211 1.000000 -1.571059 95.5168 19.8508 9.829509
14216.4 14216.4 1.000000 -1.568979 95.3725 19.8621 9.846906