File: Data/Br/Br-K-NaBrO3.xdi
# XDI/1.0 BlueSky/1.13.0a3 BMM/2024-2.0-py310-tiled
# Beamline.name: BMM (06BM) -- Beamline for Materials Measurement (NIST)
# Beamline.collimation: paraboloid mirror, 5 nm Rh on 30 nm Pt
# Beamline.xray_source: NSLS-II three-pole wiggler
# Beamline.focusing: not in use
# Beamline.harmonic_rejection: flat mirror, Pt stripe, pitch = 7.0 mrad relative to beam
# Beamline.software: Bluesky 1.13.0a4, Ophyd 1.9.0, DataBroker 2.0.0b45, Python 3.11.6, 2024-2.3-py311-tiled
# Detector.I0: 25 cm N2, NSLS2 IC
# Detector.It: 25 cm N2, NSLS2 IC
# Detector.Ir: 25 cm N2, NSLS2 IC
# Element.edge: K
# Element.symbol: Br
# Element.reference: Br
# Element.reference_material: bromophenol blue
# Facility.name: NSLS-II
# Facility.energy: 3.0
# Facility.GUP: 318519
# Facility.SAF: 316542
# Facility.cycle: 2025-2
# Facility.current: 399.7
# Facility.mode: top-off
# Mono.name: Si(111)
# Mono.d_spacing: 3.13553
# Mono.encoder_resolution: 5e-06
# Mono.angle_offset: 16.0812
# Mono.direction: forward
# Mono.scan_type: step
# Mono.scan_mode: pseudo channel cut
# Sample.name: ...
# Sample.prep: 2 abs. lengths in PEG pellet. Double kapton containment.
# Sample.SDD_position: 205.0
# Sample.x: 66.174
# Sample.y: 176.101
# Sample.wheel_slot: 18
# Sample.wheel_ring: outer
# Scan.edge_energy: 13473.7
# Scan.experimenters: Malin Dixon Wilkins, John Bussey, John Mccloy, Gavin Mccloy, Seonjin Kim, Maxwell Mccloy, John McCloy
# Scan.start_time: 2025-07-09T21:44:30
# Scan.end_time: 2025-07-09T21:52:15
# Scan.uid: 532ef967-8079-401c-a4c5-e7c183849fe5
# Scan.transient_id: 32778
# Scan.plot_hint: ln(I0/It)  --  ln($5/$6)
# Column.1: energy eV
# Column.2: requested_energy eV
# Column.3: measurement_time seconds
# Column.4: xmu
# Column.5: I0 nA
# Column.6: Itrans nA
# Column.7: Irefer nA
# //////////////////////////////////////////////////////////
# ...
# ----------------------------------------------------------
# energy requested_energy measurement_time xmu I0 It Ir
13273.7 13273.7 0.500000 -0.542007 60.9605 35.4534 28.5035
13293.8 13293.7 0.500000 -0.539207 60.5849 35.3338 28.4747
13313.8 13313.7 0.500000 -0.536067 60.3181 35.2888 28.5019
13333.8 13333.7 0.500000 -0.533142 60.0062 35.2091 28.5
13353.8 13353.7 0.500000 -0.530432 59.8137 35.1914 28.5461
13373.7 13373.7 0.500000 -0.527906 59.4879 35.0883 28.5172
13393.7 13393.7 0.500000 -0.526346 59.2244 34.9874 28.4888
13413.6 13413.7 0.500000 -0.525718 58.9824 34.8663 28.4276
13433.7 13433.7 0.500000 -0.528502 58.6926 34.5985 28.2192
13445.7 13445.7 0.500000 -0.535019 58.6703 34.3608 27.9899
13449.7 13449.7 0.500000 -0.539172 58.6029 34.179 27.8131
13453.7 13453.7 0.500000 -0.545100 58.5572 33.9505 27.5767
13457.7 13457.7 0.500000 -0.554189 58.4979 33.6093 27.2303
13461.7 13461.7 0.500000 -0.569068 58.4356 33.0776 26.6614
13464.1 13464.2 0.500000 -0.582986 58.3898 32.5949 26.1317
13465.1 13465.2 0.500000 -0.590968 58.3725 32.3262 25.84
13466.1 13466.2 0.500000 -0.600221 58.3587 32.0209 25.4936
13467.2 13467.2 0.500000 -0.611636 58.3374 31.6459 25.074
13468.2 13468.2 0.500000 -0.625215 58.3107 31.2047 24.5618
13469.2 13469.2 0.500000 -0.641291 58.2533 30.6769 23.9396
13470.1 13470.2 0.500000 -0.661497 58.2277 30.05 23.1754
13471.2 13471.2 0.500000 -0.687902 58.2528 29.2796 22.1721
13472.1 13472.2 0.500000 -0.722926 58.2594 28.275 20.7534
13473.2 13473.2 0.500000 -0.773193 58.245 26.8822 18.6092
13474.2 13474.2 0.500000 -0.843535 58.2311 25.0503 15.4509
13475.2 13475.2 0.500000 -0.947844 58.1966 22.5556 11.3189
13476.2 13476.2 0.500000 -1.110597 58.1557 19.1543 7.610332
13477.2 13477.2 0.500000 -1.369255 58.0784 14.7691 5.400940
13478.1 13478.2 0.500000 -1.806354 57.9597 9.520000 3.775402
13479.2 13479.2 0.500000 -2.570592 57.6901 4.412730 1.936817
13480.2 13480.2 0.500000 -3.777687 57.7629 1.321358 0.594075
13481.2 13481.2 0.500000 -5.180447 58.028 0.326436 0.135187
13482.2 13482.2 0.500000 -4.780583 58.1263 0.487744 0.174826
13483.2 13483.2 0.500000 -3.504793 58.0831 1.745570 0.627647
13484.2 13484.2 0.500000 -2.664580 58.0523 4.042098 1.452306
13485.2 13485.2 0.500000 -2.212348 58.0744 6.355854 2.331120
13486.2 13486.2 0.500000 -2.014936 58.0681 7.742151 2.897895
13487.2 13487.2 0.500000 -2.008794 58.0548 7.788069 2.996903
13488.2 13488.2 0.500000 -2.160691 58.0459 6.689528 2.640596
13489.2 13489.2 0.500000 -2.366674 58.0317 5.442914 2.193588
13490.2 13490.2 0.500000 -2.453123 58.012 4.990456 2.042257
13491.2 13491.2 0.500000 -2.389739 57.9512 5.311434 2.192986
13492.2 13492.2 0.500000 -2.331139 57.9098 5.627960 2.321288
13493.2 13493.2 0.500000 -2.374646 57.9375 5.390939 2.211055
13494.2 13494.2 0.500000 -2.516017 57.9524 4.681436 1.904047
13495.2 13495.2 0.500000 -2.689418 57.9409 3.935368 1.587867
13496.2 13496.2 0.500000 -2.813585 57.9192 3.474548 1.395969
13497.2 13497.2 0.500000 -2.817570 57.905 3.459880 1.388623
13498.2 13498.2 0.500000 -2.731875 57.8776 3.767665 1.512919
13499.7 13499.7 1.000000 -2.552840 115.654 9.004850 3.644784
13501.7 13501.7 1.000000 -2.331786 115.665 11.2336 4.619363
13503.8 13503.8 1.000000 -2.158705 115.589 13.3475 5.575826
13506 13506 1.000000 -2.073956 115.515 14.5188 6.121605
13508.3 13508.3 1.000000 -2.038670 115.441 15.0306 6.362461
13510.6 13510.6 1.000000 -2.064702 115.368 14.6351 6.178758
13513 13513 1.000000 -2.088126 115.29 14.2866 5.970461
13515.5 13515.5 1.000000 -2.072857 115.212 14.4966 5.963270
13518.1 13518 1.000000 -2.023656 115.127 15.2165 6.180952
13520.7 13520.7 1.000000 -2.005276 115.038 15.4867 6.258930
13523.4 13523.4 1.000000 -2.049458 114.954 14.8066 5.996639
13526.2 13526.2 1.000000 -2.105364 114.813 13.9844 5.695888
13529.1 13529 1.000000 -2.157022 114.742 13.2721 5.438526
13532 13532 1.000000 -2.186595 114.627 12.8725 5.304644
13535 13535 1.000000 -2.184374 114.321 12.8666 5.321856
13538.1 13538.1 1.000000 -2.196110 113.195 12.5912 5.224019
13541.3 13541.3 1.000000 -2.236614 113.936 12.1706 5.059399
13544.5 13544.5 1.000000 -2.272941 114.448 11.7891 4.907229
13547.9 13547.9 1.000000 -2.285173 114.328 11.6336 4.845663
13551.3 13551.2 1.000000 -2.286675 114.49 11.6326 4.853448
13554.7 13554.7 1.000000 -2.303604 114.251 11.4134 4.773908
13558.3 13558.3 1.000000 -2.329334 113.132 11.0146 4.623247
13561.9 13561.9 1.000000 -2.346134 114.201 10.9334 4.606951
13565.7 13565.6 1.000000 -2.352638 113.481 10.794 4.565438
13569.4 13569.4 1.000000 -2.345934 113.945 10.9111 4.627961
13573.3 13573.2 1.000000 -2.316881 112.698 11.1099 4.718021
13577.2 13577.2 1.000000 -2.276701 113.734 11.6717 4.960116
13581.2 13581.2 1.000000 -2.248570 113.625 11.9931 5.096309
13585.3 13585.3 1.000000 -2.226331 113.5 12.2493 5.205765
13589.5 13589.4 1.000000 -2.208811 113.161 12.4286 5.283613
13593.7 13593.7 1.000000 -2.197304 112.616 12.5119 5.325063
13598 13598 1.000000 -2.187211 113.195 12.7038 5.417014
13602.4 13602.4 1.000000 -2.173548 113.047 12.8618 5.493764
13606.9 13606.9 1.000000 -2.164958 112.935 12.9598 5.539230
13611.4 13611.4 1.000000 -2.158296 112.762 13.0265 5.562368
13616 13616 1.000000 -2.149911 112.675 13.126 5.595952
13620.7 13620.7 1.000000 -2.142657 112.475 13.1982 5.618634
13625.5 13625.5 1.000000 -2.145350 112.424 13.1567 5.600096
13630.4 13630.3 1.000000 -2.155072 112.205 13.0039 5.542348
13635.3 13635.2 1.000000 -2.167496 112.137 12.8356 5.486284
13640.3 13640.2 1.000000 -2.176470 111.984 12.7036 5.446374
13645.3 13645.3 1.000000 -2.183381 111.817 12.5973 5.416045
13650.5 13650.5 1.000000 -2.187444 111.607 12.5227 5.396079
13655.7 13655.7 1.000000 -2.189877 111.485 12.4785 5.388032
13661 13661 1.000000 -2.191109 111.406 12.4544 5.387242
13666.4 13666.4 1.000000 -2.192987 111.238 12.4123 5.381943
13671.9 13671.9 1.000000 -2.197779 111.07 12.3343 5.359827
13677.4 13677.4 1.000000 -2.204089 110.9 12.2379 5.328686
13683 13683 1.000000 -2.203223 110.729 12.2296 5.332333
13688.7 13688.7 1.000000 -2.198031 110.564 12.275 5.357445
13694.5 13694.4 1.000000 -2.188155 110.4 12.3784 5.410272
13700.3 13700.3 1.000000 -2.176235 110.21 12.5053 5.467768
13706.2 13706.2 1.000000 -2.165281 110.056 12.6254 5.523549
13712.2 13712.2 1.000000 -2.157763 109.878 12.7001 5.558278
13718.3 13718.2 1.000000 -2.150061 109.711 12.7788 5.597954
13724.4 13724.4 1.000000 -2.142264 109.534 12.8581 5.641664
13730.7 13730.6 1.000000 -2.135072 109.364 12.9308 5.686449
13736.9 13736.9 1.000000 -2.130451 109.196 12.9708 5.716429
13743.3 13743.3 1.000000 -2.125308 109.016 13.0161 5.747233
13749.8 13749.7 1.000000 -2.117810 108.819 13.0903 5.783851
13756.3 13756.2 1.000000 -2.112438 108.622 13.137 5.809959
13762.9 13762.9 1.000000 -2.110142 108.428 13.1438 5.819899
13769.6 13769.5 1.000000 -2.111277 108.236 13.1056 5.813888
13776.2 13776.3 1.000000 -2.113793 108.045 13.0495 5.801602
13783.1 13783.1 1.000000 -2.115711 108.191 13.0421 5.811196
13790 13790 1.000000 -2.115226 108.004 13.0259 5.814682
13797 13797 1.000000 -2.114077 107.797 13.0159 5.821803
13804.1 13804 1.000000 -2.112528 107.592 13.0113 5.832777
13811.2 13811.2 1.000000 -2.110885 107.377 13.0067 5.842401
13818.4 13818.4 1.000000 -2.108860 107.17 13.0078 5.856265
13825.7 13825.7 1.000000 -2.106495 106.916 13.0078 5.867532
13833.1 13833 1.000000 -2.103707 106.712 13.0192 5.882762
13840.5 13840.5 1.000000 -2.100047 106.523 13.0438 5.902361
13848 13848 1.000000 -2.095460 106.268 13.0725 5.924905
13855.6 13855.6 1.000000 -2.089723 105.951 13.1084 5.951386
13863.3 13863.2 1.000000 -2.083135 105.796 13.1758 5.991614
13871 13871 1.000000 -2.076165 105.49 13.2295 6.028370
13878.8 13878.8 1.000000 -2.069822 105.016 13.2539 6.049456
13886.7 13886.7 1.000000 -2.063581 104.486 13.2695 6.067401
13894.7 13894.7 1.000000 -2.057754 103.85 13.2658 6.079648
13902.8 13902.7 1.000000 -2.052884 103.759 13.3189 6.117683
13910.9 13910.9 1.000000 -2.048150 103.676 13.3714 6.156208
13919.1 13919 1.000000 -2.043290 103.371 13.3971 6.181518
13927.4 13927.3 1.000000 -2.038535 103.268 13.4474 6.217398
13935.7 13935.7 1.000000 -2.034352 103.17 13.4911 6.251794
13944.1 13944.1 1.000000 -2.030663 102.929 13.5093 6.272881
13952.6 13952.6 1.000000 -2.027724 102.684 13.5168 6.289341
13961.2 13961.2 1.000000 -2.025433 102.332 13.5014 6.296744
13969.9 13969.9 1.000000 -2.020882 95.1059 12.6052 5.889639
13978.7 13978.6 1.000000 -2.019789 102.401 13.587 6.361301
13987.4 13987.4 1.000000 -2.016757 102.118 13.5905 6.377407
13996.3 13996.3 1.000000 -2.013294 101.877 13.6055 6.398403
14005.3 14005.2 1.000000 -2.009707 101.65 13.6239 6.423031
14014.3 14014.3 1.000000 -2.005525 101.41 13.6487 6.447399
14023.4 14023.4 1.000000 -2.001344 101.155 13.6714 6.472283
14032.6 14032.6 1.000000 -1.996480 100.923 13.7067 6.500797
14041.9 14041.9 1.000000 -1.991650 100.696 13.7419 6.530156
14051.2 14051.2 1.000000 -1.986724 100.462 13.7778 6.563522
14060.6 14060.6 1.000000 -1.981459 100.173 13.8106 6.594435
14070.1 14070.1 1.000000 -1.975671 99.7017 13.8255 6.615319
14079.7 14079.7 1.000000 -1.970152 99.6618 13.8964 6.664578
14089.4 14089.3 1.000000 -1.964482 99.5378 13.958 6.710468
14099.1 14099.1 1.000000 -1.959118 99.1857 13.9835 6.736263
14108.9 14108.9 1.000000 -1.954043 98.5712 13.9675 6.744314
14118.8 14118.7 1.000000 -1.944931 93.0344 13.3036 6.435786
14128.7 14128.7 1.000000 -1.944018 98.4179 14.0863 6.833679
14139.1 14138.7 1.000000 -1.939647 98.4624 14.1544 6.882014
14148.8 14148.8 1.000000 -1.935468 98.199 14.1757 6.909250
14159 14159 1.000000 -1.931511 97.5626 14.1397 6.906677
14169.3 14169.3 1.000000 -1.927384 97.6089 14.2049 6.955867
14179.6 14179.6 1.000000 -1.923265 97.3701 14.2286 6.982095
14190 14190 1.000000 -1.919326 97.0962 14.2446 7.006591
14200.5 14200.5 1.000000 -1.915485 96.8227 14.2591 7.030176
14211.1 14211 1.000000 -1.911249 96.514 14.274 7.052151
14216.4 14216.4 1.000000 -1.909189 96.3635 14.2811 7.064562