File: Data/Br/Br-K-NaBr.xdi
# XDI/1.0 BlueSky/1.13.0a3 BMM/2024-2.0-py310-tiled
# Beamline.name: BMM (06BM) -- Beamline for Materials Measurement (NIST)
# Beamline.collimation: paraboloid mirror, 5 nm Rh on 30 nm Pt
# Beamline.xray_source: NSLS-II three-pole wiggler
# Beamline.focusing: not in use
# Beamline.harmonic_rejection: flat mirror, Pt stripe, pitch = 7.0 mrad relative to beam
# Beamline.software: Bluesky 1.13.0a4, Ophyd 1.9.0, DataBroker 2.0.0b45, Python 3.11.6, 2024-2.3-py311-tiled
# Detector.I0: 25 cm N2, NSLS2 IC
# Detector.It: 25 cm N2, NSLS2 IC
# Detector.Ir: 25 cm N2, NSLS2 IC
# Element.edge: K
# Element.symbol: Br
# Element.reference: Br
# Element.reference_material: bromophenol blue
# Facility.name: NSLS-II
# Facility.energy: 3.0
# Facility.GUP: 318519
# Facility.SAF: 316542
# Facility.cycle: 2025-2
# Facility.current: 400.6
# Facility.mode: top-off
# Mono.name: Si(111)
# Mono.d_spacing: 3.13553
# Mono.encoder_resolution: 5e-06
# Mono.angle_offset: 16.0812
# Mono.direction: forward
# Mono.scan_type: step
# Mono.scan_mode: pseudo channel cut
# Sample.name: ...
# Sample.prep: 2 abs. lengths in PEG pellet. Double kapton containment.
# Sample.SDD_position: 205.0
# Sample.x: 66.174
# Sample.y: 176.101
# Sample.wheel_slot: 17
# Sample.wheel_ring: outer
# Scan.edge_energy: 13473.7
# Scan.experimenters: Malin Dixon Wilkins, John Bussey, John Mccloy, Gavin Mccloy, Seonjin Kim, Maxwell Mccloy, John McCloy
# Scan.start_time: 2025-07-09T21:36:03
# Scan.end_time: 2025-07-09T21:43:58
# Scan.uid: 323dbd41-cc1f-4ddc-9f77-a1e2b87073d8
# Scan.transient_id: 32774
# Scan.plot_hint: ln(I0/It)  --  ln($5/$6)
# Column.1: energy eV
# Column.2: requested_energy eV
# Column.3: measurement_time seconds
# Column.4: xmu
# Column.5: I0 nA
# Column.6: Itrans nA
# Column.7: Irefer nA
# //////////////////////////////////////////////////////////
# ...
# ----------------------------------------------------------
# energy requested_energy measurement_time xmu I0 It Ir
13273.8 13273.7 0.500000 -0.511075 61.0433 36.6168 29.5028
13293.8 13293.7 0.500000 -0.508328 60.668 36.4918 29.469
13313.7 13313.7 0.500000 -0.505534 60.4013 36.4331 29.4922
13333.7 13333.7 0.500000 -0.502723 60.0919 36.3485 29.483
13353.8 13353.7 0.500000 -0.500080 59.8995 36.328 29.5307
13373.7 13373.7 0.500000 -0.497762 59.5849 36.221 29.5008
13393.8 13393.7 0.500000 -0.495931 59.318 36.1249 29.4784
13413.8 13413.7 0.500000 -0.495036 59.0774 36.0106 29.426
13433.6 13433.7 0.500000 -0.496520 58.7767 35.7741 29.2406
13445.7 13445.7 0.500000 -0.500549 58.5963 35.5209 28.9988
13449.6 13449.7 0.500000 -0.503148 58.5201 35.3827 28.8554
13453.6 13453.7 0.500000 -0.507080 58.4785 35.2188 28.6702
13457.6 13457.7 0.500000 -0.513118 58.4187 34.971 28.3871
13461.7 13461.7 0.500000 -0.523149 58.3623 34.5885 27.941
13464.1 13464.2 0.500000 -0.532569 58.3194 34.239 27.518
13465.1 13465.2 0.500000 -0.537864 58.3069 34.0509 27.2823
13466.1 13466.2 0.500000 -0.544513 58.289 33.8149 26.9909
13467.1 13467.2 0.500000 -0.552454 58.2718 33.5375 26.6341
13468.1 13468.2 0.500000 -0.562099 58.2556 33.2064 26.203
13469.1 13469.2 0.500000 -0.573909 58.2021 32.7863 25.6572
13470.1 13470.2 0.500000 -0.589427 58.1625 32.2595 24.9481
13471.2 13471.2 0.500000 -0.610384 58.1822 31.6012 24.0086
13472.1 13472.2 0.500000 -0.640297 58.1987 30.6786 22.619
13473.2 13473.2 0.500000 -0.687296 58.1909 29.2662 20.3964
13474.2 13474.2 0.500000 -0.763772 58.1708 27.1021 16.8871
13475.2 13475.2 0.500000 -0.896116 58.1486 23.7334 12.1627
13476.2 13476.2 0.500000 -1.126185 58.1165 18.8453 7.601318
13477.2 13477.2 0.500000 -1.441207 58.0295 13.7322 5.072986
13478.2 13478.2 0.500000 -1.738948 57.9215 10.1771 4.211970
13479.2 13479.2 0.500000 -1.903488 57.6474 8.592220 3.895261
13480.1 13480.2 0.500000 -1.941509 57.6833 8.276824 3.655063
13481.2 13481.2 0.500000 -1.916765 57.9541 8.524010 3.445664
13482.2 13482.2 0.500000 -1.861077 58.0664 9.029621 3.377390
13483.2 13483.2 0.500000 -1.785006 58.0313 9.737421 3.514999
13484.2 13484.2 0.500000 -1.703697 57.9906 10.5548 3.800421
13485.2 13485.2 0.500000 -1.635990 58.0157 11.2991 4.133879
13486.2 13486.2 0.500000 -1.588018 58.0279 11.8568 4.455456
13487.2 13487.2 0.500000 -1.566246 58.0096 12.114 4.692488
13488.2 13488.2 0.500000 -1.576460 58.0012 11.9892 4.773318
13489.2 13489.2 0.500000 -1.616679 57.9811 11.5125 4.675201
13490.2 13490.2 0.500000 -1.670574 57.9589 10.9043 4.485348
13491.2 13491.2 0.500000 -1.721234 57.9059 10.3562 4.290603
13492.2 13492.2 0.500000 -1.754121 57.8596 10.0131 4.149139
13493.2 13493.2 0.500000 -1.767729 57.8809 9.881450 4.074932
13494.2 13494.2 0.500000 -1.765077 57.8918 9.909551 4.056883
13495.2 13495.2 0.500000 -1.751980 57.8892 10.0397 4.084233
13496.2 13496.2 0.500000 -1.733335 57.8685 10.225 4.137099
13497.2 13497.2 0.500000 -1.715342 57.851 10.4075 4.201469
13498.2 13498.2 0.500000 -1.700940 57.828 10.5543 4.261943
13499.7 13499.7 1.000000 -1.685046 115.53 21.4234 8.707473
13501.7 13501.7 1.000000 -1.670684 115.529 21.7331 8.979785
13503.8 13503.8 1.000000 -1.663754 115.471 21.8732 9.178140
13506.1 13506 1.000000 -1.668226 115.388 21.76 9.218753
13508.3 13508.3 1.000000 -1.676808 115.319 21.5612 9.168583
13510.6 13510.6 1.000000 -1.684569 115.236 21.379 9.072055
13513 13513 1.000000 -1.692544 115.486 21.2553 8.923725
13515.5 13515.5 1.000000 -1.696815 115.407 21.1502 8.742498
13518.1 13518 1.000000 -1.693838 115.321 21.1975 8.649471
13520.7 13520.7 1.000000 -1.686732 115.233 21.3324 8.662227
13523.4 13523.4 1.000000 -1.679166 115.137 21.4764 8.739849
13526.2 13526.2 1.000000 -1.671253 114.991 21.6196 8.849395
13529.1 13529 1.000000 -1.661284 114.899 21.8188 8.985639
13532 13532 1.000000 -1.651256 114.798 22.0192 9.117393
13535 13535 1.000000 -1.644182 114.502 22.1185 9.195530
13538.1 13538.1 1.000000 -1.641511 113.304 21.9454 9.150120
13541.3 13541.3 1.000000 -1.641781 114.073 22.0885 9.229514
13544.5 13544.5 1.000000 -1.643130 114.614 22.1634 9.271274
13547.9 13547.9 1.000000 -1.644371 114.49 22.1119 9.259609
13551.2 13551.2 1.000000 -1.644988 114.378 22.0767 9.257869
13554.7 13554.7 1.000000 -1.644763 114.144 22.0365 9.267220
13558.3 13558.3 1.000000 -1.644031 112.937 21.8195 9.206310
13561.9 13561.9 1.000000 -1.641689 114.066 22.0892 9.355619
13565.6 13565.6 1.000000 -1.638854 113.367 22.0161 9.361816
13569.4 13569.4 1.000000 -1.635899 113.82 22.1696 9.450748
13573.3 13573.2 1.000000 -1.633641 112.646 21.9904 9.387975
13577.2 13577.2 1.000000 -1.631392 113.621 22.2307 9.494965
13581.2 13581.2 1.000000 -1.629879 113.528 22.2461 9.498383
13585.3 13585.3 1.000000 -1.628941 113.381 22.2381 9.496672
13589.5 13589.4 1.000000 -1.627895 113.045 22.1954 9.480417
13593.7 13593.7 1.000000 -1.626813 112.557 22.1236 9.461259
13598 13598 1.000000 -1.626735 113.06 22.2242 9.520939
13602.4 13602.4 1.000000 -1.626750 112.917 22.1958 9.525149
13606.9 13606.9 1.000000 -1.626569 112.801 22.177 9.522459
13611.4 13611.4 1.000000 -1.625685 112.638 22.1645 9.507008
13616 13616 1.000000 -1.624594 112.524 22.1663 9.493104
13620.7 13620.7 1.000000 -1.623092 112.329 22.161 9.478534
13625.5 13625.5 1.000000 -1.621051 112.269 22.1945 9.490701
13630.3 13630.3 1.000000 -1.618781 112.051 22.2018 9.506717
13635.3 13635.2 1.000000 -1.616141 111.983 22.2469 9.552771
13640.3 13640.2 1.000000 -1.613291 111.833 22.2807 9.599108
13645.3 13645.3 1.000000 -1.610822 111.671 22.3034 9.633746
13650.5 13650.5 1.000000 -1.608826 111.474 22.3084 9.659892
13655.8 13655.7 1.000000 -1.607052 111.324 22.318 9.682438
13661 13661 1.000000 -1.605628 111.269 22.3388 9.711292
13666.4 13666.4 1.000000 -1.604234 111.103 22.3365 9.732029
13671.9 13671.9 1.000000 -1.602890 110.94 22.3337 9.752687
13677.4 13677.4 1.000000 -1.601364 110.778 22.3353 9.770028
13683 13683 1.000000 -1.599495 110.613 22.3437 9.789536
13688.7 13688.7 1.000000 -1.597895 110.453 22.3471 9.799733
13694.5 13694.4 1.000000 -1.596437 110.647 22.4189 9.841699
13700.3 13700.3 1.000000 -1.594572 110.466 22.4241 9.853013
13706.2 13706.2 1.000000 -1.592634 110.318 22.4374 9.863365
13712.2 13712.2 1.000000 -1.590724 110.159 22.4479 9.869705
13718.3 13718.2 1.000000 -1.588929 109.995 22.4549 9.883821
13724.4 13724.4 1.000000 -1.587073 109.818 22.4603 9.903129
13730.6 13730.6 1.000000 -1.585349 109.619 22.4584 9.924539
13736.9 13736.9 1.000000 -1.583464 109.486 22.4733 9.951304
13743.3 13743.3 1.000000 -1.581719 109.305 22.4755 9.970422
13749.8 13749.7 1.000000 -1.579763 109.108 22.4789 9.980336
13756.3 13756.2 1.000000 -1.577842 108.929 22.4852 9.990240
13762.8 13762.9 1.000000 -1.575944 108.748 22.4905 10.0067
13769.6 13769.5 1.000000 -1.573840 108.538 22.4942 10.0294
13776.3 13776.3 1.000000 -1.571606 108.347 22.5049 10.0533
13783.1 13783.1 1.000000 -1.569372 108.142 22.5125 10.0779
13790 13790 1.000000 -1.567248 107.959 22.5223 10.102
13797 13797 1.000000 -1.564858 107.745 22.5314 10.1229
13804.1 13804 1.000000 -1.562695 107.555 22.5403 10.15
13811.2 13811.2 1.000000 -1.560493 107.348 22.5466 10.1781
13818.4 13818.4 1.000000 -1.558273 107.155 22.5561 10.2036
13825.7 13825.7 1.000000 -1.555964 106.895 22.5534 10.2236
13833.1 13833 1.000000 -1.553532 106.694 22.5658 10.2447
13840.5 13840.5 1.000000 -1.551255 106.498 22.5756 10.2619
13848 13848 1.000000 -1.548950 106.255 22.5761 10.2795
13855.6 13855.6 1.000000 -1.546473 105.919 22.5606 10.2904
13863.3 13863.2 1.000000 -1.544092 105.762 22.5809 10.3169
13871 13871 1.000000 -1.541558 105.454 22.5722 10.3329
13878.8 13878.8 1.000000 -1.539002 104.969 22.5259 10.3283
13886.7 13886.7 1.000000 -1.536506 104.45 22.4705 10.3255
13894.7 13894.7 1.000000 -1.533929 103.802 22.3886 10.3083
13902.8 13902.7 1.000000 -1.531446 103.691 22.4204 10.3484
13911 13910.9 1.000000 -1.528731 103.593 22.46 10.3886
13919 13919 1.000000 -1.526253 103.251 22.4415 10.4018
13927.3 13927.3 1.000000 -1.523607 103.134 22.4755 10.4404
13935.7 13935.7 1.000000 -1.521104 102.999 22.5023 10.477
13944.1 13944.1 1.000000 -1.518454 102.738 22.5048 10.4994
13952.6 13952.6 1.000000 -1.515852 102.486 22.5081 10.5248
13961.2 13961.2 1.000000 -1.513284 102.11 22.4831 10.5363
13969.9 13969.9 1.000000 -1.510677 94.8469 20.9384 9.829088
13978.7 13978.6 1.000000 -1.507706 102.126 22.6124 10.6371
13987.5 13987.4 1.000000 -1.505261 101.815 22.5989 10.6549
13996.3 13996.3 1.000000 -1.502460 101.778 22.6539 10.7061
14005.3 14005.2 1.000000 -1.499653 101.527 22.6616 10.7337
14014.3 14014.3 1.000000 -1.496911 101.277 22.6679 10.7624
14023.4 14023.4 1.000000 -1.494206 100.996 22.6661 10.7813
14032.6 14032.6 1.000000 -1.491310 100.743 22.6751 10.8063
14041.9 14041.9 1.000000 -1.488573 100.502 22.6827 10.8317
14051.2 14051.2 1.000000 -1.485869 100.273 22.6923 10.8614
14060.6 14060.6 1.000000 -1.483132 99.9678 22.6853 10.8834
14070.2 14070.1 1.000000 -1.480132 99.4851 22.6436 10.8854
14079.7 14079.7 1.000000 -1.477307 99.4024 22.6888 10.9323
14089.3 14089.3 1.000000 -1.474495 99.2948 22.728 10.9759
14099.1 14099.1 1.000000 -1.471720 98.9427 22.7104 10.9946
14108.9 14108.9 1.000000 -1.468872 98.3361 22.6355 10.9825
14118.8 14118.7 1.000000 -1.465664 93.1374 21.5077 10.4592
14128.7 14128.7 1.000000 -1.463033 98.3492 22.7711 11.1002
14138.8 14138.7 1.000000 -1.460173 98.078 22.7733 11.1267
14148.9 14148.8 1.000000 -1.457390 97.8068 22.7736 11.1537
14159 14159 1.000000 -1.454541 97.1786 22.6919 11.1383
14169.3 14169.3 1.000000 -1.451588 97.2194 22.7686 11.2009
14179.7 14179.6 1.000000 -1.448734 96.9907 22.78 11.2321
14190.1 14190 1.000000 -1.445778 96.7373 22.7877 11.2603
14200.6 14200.5 1.000000 -1.442880 96.4603 22.7884 11.2871
14211.1 14211 1.000000 -1.439853 96.1743 22.7897 11.3147
14216.4 14216.4 1.000000 -1.438396 96.0556 22.7948 11.329